Experiment	bias spectroscopy	
Date	21.11.2022 12:31:28	
User		
X (m)	521.149E-9	
Y (m)	-513.365E-9	
Z (m)	-106.678E-9	
Z offset (m)	0E+0	
Settling time (s)	4E-3	
Integration time (s)	8E-3	
Z-Ctrl hold	TRUE	
Final Z (m)	-106.684E-9	
Filter type	None	
Order		
Cutoff frq		
Comment01	SiC	

[DATA]
Bias calc (V)	Current (A)	LIX 1 omega (A)	LIY 1 omega (A)
-1.40000E+0	-154.912E-12	-17.5390E-12	5.19928E-12
-1.39726E+0	-136.305E-12	-16.8380E-12	7.20203E-12
-1.39453E+0	-111.184E-12	-15.2388E-12	6.19217E-12
-1.39179E+0	-72.4771E-12	-15.2894E-12	5.48189E-12
-1.38905E+0	-71.1225E-12	-16.9976E-12	3.81107E-12
-1.38631E+0	-79.6371E-12	-17.2422E-12	3.45031E-12
-1.38358E+0	-113.817E-12	-17.0326E-12	4.60612E-12
-1.38084E+0	-132.826E-12	-16.5626E-12	6.01622E-12
-1.37810E+0	-134.757E-12	-14.6699E-12	7.61722E-12
-1.37537E+0	-103.777E-12	-16.8206E-12	5.60012E-12
-1.37263E+0	-72.2952E-12	-15.0487E-12	5.38721E-12
-1.36989E+0	-61.8692E-12	-16.7097E-12	3.92269E-12
-1.36716E+0	-74.2924E-12	-16.8209E-12	3.90522E-12
-1.36442E+0	-107.786E-12	-17.2312E-12	4.53882E-12
-1.36168E+0	-127.322E-12	-17.1192E-12	6.02842E-12
-1.35894E+0	-127.636E-12	-17.1110E-12	5.21703E-12
-1.35621E+0	-98.3437E-12	-14.8088E-12	6.84805E-12
-1.35347E+0	-86.5299E-12	-16.3594E-12	5.74436E-12
-1.35073E+0	-61.0327E-12	-16.3856E-12	3.94035E-12
-1.34800E+0	-70.3802E-12	-16.6495E-12	3.14404E-12
-1.34526E+0	-87.6593E-12	-16.8653E-12	3.40122E-12
-1.34252E+0	-112.593E-12	-17.3268E-12	5.20707E-12
-1.33978E+0	-116.952E-12	-18.2863E-12	5.45100E-12
-1.33705E+0	-103.760E-12	-15.3859E-12	6.03571E-12
-1.33431E+0	-79.2479E-12	-15.7258E-12	5.02353E-12
-1.33157E+0	-59.4316E-12	-15.6686E-12	3.92679E-12
-1.32884E+0	-65.3650E-12	-16.5119E-12	3.35735E-12
-1.32610E+0	-75.5703E-12	-16.5861E-12	4.26212E-12
-1.32336E+0	-106.220E-12	-18.3467E-12	5.00247E-12
-1.32063E+0	-106.924E-12	-16.2774E-12	5.79106E-12
-1.31789E+0	-102.398E-12	-16.8716E-12	4.57063E-12
-1.31515E+0	-78.9898E-12	-16.2604E-12	4.39050E-12
-1.31241E+0	-64.1127E-12	-16.1784E-12	4.18446E-12
-1.30968E+0	-58.7997E-12	-16.4978E-12	2.78477E-12
-1.30694E+0	-69.5255E-12	-15.6059E-12	4.01368E-12
-1.30420E+0	-88.4548E-12	-17.0412E-12	4.97126E-12
-1.30147E+0	-97.6479E-12	-15.7777E-12	4.49893E-12
-1.29873E+0	-97.0951E-12	-16.1213E-12	5.65993E-12
-1.29599E+0	-73.5060E-12	-15.1190E-12	5.09551E-12
-1.29326E+0	-64.7673E-12	-16.2163E-12	3.77208E-12
-1.29052E+0	-56.9832E-12	-16.9097E-12	3.25251E-12
-1.28778E+0	-71.1899E-12	-17.0106E-12	3.80137E-12
-1.28504E+0	-81.5636E-12	-16.8728E-12	4.24267E-12
-1.28231E+0	-88.3432E-12	-15.6713E-12	6.65727E-12
-1.27957E+0	-75.1986E-12	-15.7937E-12	5.32763E-12
-1.27683E+0	-66.0631E-12	-16.2907E-12	4.49837E-12
-1.27410E+0	-59.0235E-12	-15.6564E-12	4.52510E-12
-1.27136E+0	-60.1749E-12	-15.6569E-12	3.53765E-12
-1.26862E+0	-72.2284E-12	-16.7238E-12	3.37569E-12
-1.26588E+0	-73.7352E-12	-16.5992E-12	4.48411E-12
-1.26315E+0	-76.0872E-12	-16.0774E-12	4.87064E-12
-1.26041E+0	-63.9488E-12	-16.1878E-12	3.96238E-12
-1.25767E+0	-61.1645E-12	-16.7467E-12	4.55171E-12
-1.25494E+0	-55.4739E-12	-16.2302E-12	3.62316E-12
-1.25220E+0	-59.6144E-12	-17.1498E-12	3.05318E-12
-1.24946E+0	-68.5366E-12	-16.6819E-12	3.15216E-12
-1.24673E+0	-76.3327E-12	-16.5193E-12	5.05145E-12
-1.24399E+0	-69.1582E-12	-16.6221E-12	5.27891E-12
-1.24125E+0	-62.7380E-12	-16.5555E-12	5.03907E-12
-1.23851E+0	-60.9884E-12	-16.1175E-12	4.21518E-12
-1.23578E+0	-57.7803E-12	-16.2514E-12	3.94791E-12
-1.23304E+0	-64.7137E-12	-16.3850E-12	4.40802E-12
-1.23030E+0	-65.3324E-12	-16.1305E-12	4.51488E-12
-1.22757E+0	-66.9416E-12	-16.3991E-12	4.82083E-12
-1.22483E+0	-61.5219E-12	-17.1053E-12	5.07388E-12
-1.22209E+0	-64.8455E-12	-16.4962E-12	4.98729E-12
-1.21935E+0	-59.9518E-12	-16.3442E-12	4.67136E-12
-1.21662E+0	-58.2771E-12	-16.3364E-12	5.56368E-12
-1.21388E+0	-56.8569E-12	-16.8400E-12	4.41584E-12
-1.21114E+0	-59.1120E-12	-15.9236E-12	4.71232E-12
-1.20841E+0	-62.3026E-12	-16.7410E-12	4.35090E-12
-1.20567E+0	-61.0409E-12	-15.7460E-12	5.47832E-12
-1.20293E+0	-60.9030E-12	-15.7712E-12	5.14161E-12
-1.20020E+0	-54.5897E-12	-15.8742E-12	4.82991E-12
-1.19746E+0	-55.5090E-12	-15.7224E-12	4.92762E-12
-1.19472E+0	-48.1087E-12	-16.5388E-12	4.59704E-12
-1.19198E+0	-54.4348E-12	-16.7354E-12	4.96389E-12
-1.18925E+0	-54.5013E-12	-16.2923E-12	4.51832E-12
-1.18651E+0	-60.6688E-12	-15.3674E-12	5.30698E-12
-1.18377E+0	-61.0395E-12	-16.1676E-12	5.53634E-12
-1.18104E+0	-48.1132E-12	-16.1217E-12	6.45153E-12
-1.17830E+0	-40.1424E-12	-16.4862E-12	4.27456E-12
-1.17556E+0	-36.1984E-12	-16.3391E-12	3.93571E-12
-1.17282E+0	-39.2078E-12	-16.6479E-12	4.09753E-12
-1.17009E+0	-48.5598E-12	-16.8052E-12	4.87387E-12
-1.16735E+0	-59.4404E-12	-16.6245E-12	5.99803E-12
-1.16461E+0	-55.7554E-12	-16.4559E-12	6.68097E-12
-1.16188E+0	-48.2052E-12	-15.9983E-12	5.25149E-12
-1.15914E+0	-33.4120E-12	-16.0226E-12	4.53900E-12
-1.15640E+0	-29.5662E-12	-16.4888E-12	3.50375E-12
-1.15367E+0	-30.3926E-12	-16.5267E-12	3.68453E-12
-1.15093E+0	-43.0874E-12	-16.5679E-12	5.53048E-12
-1.14819E+0	-49.4030E-12	-16.0556E-12	6.94394E-12
-1.14545E+0	-56.0278E-12	-16.7345E-12	7.57570E-12
-1.14272E+0	-46.1315E-12	-16.2890E-12	6.62010E-12
-1.13998E+0	-27.8202E-12	-15.8711E-12	4.61547E-12
-1.13724E+0	-20.7981E-12	-16.5566E-12	3.08254E-12
-1.13451E+0	-22.5306E-12	-16.5356E-12	3.58733E-12
-1.13177E+0	-41.0025E-12	-17.0676E-12	5.38887E-12
-1.12903E+0	-49.7934E-12	-16.1973E-12	7.85384E-12
-1.12630E+0	-51.2808E-12	-15.9917E-12	8.27954E-12
-1.12356E+0	-39.4279E-12	-15.6728E-12	6.88128E-12
-1.12082E+0	-24.5897E-12	-16.1079E-12	4.81039E-12
-1.11808E+0	-15.7921E-12	-16.4483E-12	3.15450E-12
-1.11535E+0	-19.0748E-12	-16.6987E-12	3.46036E-12
-1.11261E+0	-30.0158E-12	-17.0346E-12	5.14453E-12
-1.10987E+0	-42.1999E-12	-16.4834E-12	7.71443E-12
-1.10714E+0	-43.1272E-12	-16.1632E-12	7.88922E-12
-1.10440E+0	-33.9174E-12	-15.9312E-12	6.85776E-12
-1.10166E+0	-22.1811E-12	-16.5348E-12	4.56966E-12
-1.09892E+0	-13.3642E-12	-15.9476E-12	3.48567E-12
-1.09619E+0	-16.7603E-12	-16.6648E-12	3.13302E-12
-1.09345E+0	-22.8510E-12	-16.9105E-12	3.99670E-12
-1.09071E+0	-32.7520E-12	-16.7526E-12	6.03343E-12
-1.08798E+0	-34.3149E-12	-16.1868E-12	6.83222E-12
-1.08524E+0	-29.0329E-12	-16.1551E-12	5.84374E-12
-1.08250E+0	-20.1712E-12	-16.2377E-12	4.72610E-12
-1.07977E+0	-14.6296E-12	-16.4859E-12	3.85663E-12
-1.07703E+0	-13.3696E-12	-16.6513E-12	3.16698E-12
-1.07429E+0	-17.0708E-12	-16.5736E-12	3.71210E-12
-1.07155E+0	-22.3845E-12	-16.7625E-12	4.51465E-12
-1.06882E+0	-27.0039E-12	-16.7051E-12	5.06561E-12
-1.06608E+0	-25.7166E-12	-16.2042E-12	5.20019E-12
-1.06334E+0	-18.8278E-12	-15.9807E-12	4.32139E-12
-1.06061E+0	-13.5376E-12	-16.3585E-12	3.59447E-12
-1.05787E+0	-9.94339E-12	-16.4947E-12	2.59216E-12
-1.05513E+0	-11.7939E-12	-16.2885E-12	2.90924E-12
-1.05239E+0	-15.6458E-12	-16.6882E-12	3.22444E-12
-1.04966E+0	-20.7642E-12	-16.3343E-12	3.95157E-12
-1.04692E+0	-21.6900E-12	-16.5473E-12	3.24874E-12
-1.04418E+0	-17.5308E-12	-16.4236E-12	3.35795E-12
-1.04145E+0	-12.0522E-12	-16.3205E-12	2.32415E-12
-1.03871E+0	-8.75473E-12	-16.3990E-12	2.07841E-12
-1.03597E+0	-8.68359E-12	-16.6586E-12	1.94055E-12
-1.03324E+0	-11.2894E-12	-16.5827E-12	2.15032E-12
-1.03050E+0	-16.2121E-12	-16.5961E-12	2.30154E-12
-1.02776E+0	-18.6115E-12	-16.7764E-12	2.03310E-12
-1.02502E+0	-18.2339E-12	-16.5964E-12	2.15506E-12
-1.02229E+0	-11.6594E-12	-16.3558E-12	2.30625E-12
-1.01955E+0	-8.52699E-12	-16.2874E-12	1.76648E-12
-1.01681E+0	-6.70910E-12	-16.6137E-12	1.59358E-12
-1.01408E+0	-8.89721E-12	-16.5563E-12	1.47765E-12
-1.01134E+0	-12.0209E-12	-16.5786E-12	1.66666E-12
-1.00860E+0	-16.0498E-12	-16.4732E-12	1.78263E-12
-1.00587E+0	-17.4702E-12	-16.3134E-12	1.81764E-12
-1.00313E+0	-12.1092E-12	-16.4748E-12	1.39301E-12
-1.00039E+0	-8.71563E-12	-16.5157E-12	1.26990E-12
-997.654E-3	-5.22270E-12	-16.5335E-12	1.34583E-12
-994.917E-3	-7.30667E-12	-16.5489E-12	1.09519E-12
-992.180E-3	-10.6329E-12	-16.8159E-12	1.10880E-12
-989.443E-3	-16.7789E-12	-16.9638E-12	1.33096E-12
-986.706E-3	-18.1662E-12	-16.4625E-12	1.44572E-12
-983.969E-3	-14.0339E-12	-16.3147E-12	1.81531E-12
-981.232E-3	-7.98607E-12	-16.5379E-12	1.09099E-12
-978.495E-3	-4.90112E-12	-16.4572E-12	1.15572E-12
-975.758E-3	-5.62820E-12	-16.6614E-12	793.182E-15
-973.020E-3	-9.08623E-12	-16.8507E-12	921.822E-15
-970.283E-3	-15.6872E-12	-16.7248E-12	740.745E-15
-967.546E-3	-17.3113E-12	-16.6318E-12	1.04704E-12
-964.809E-3	-15.2763E-12	-16.3201E-12	1.23683E-12
-962.072E-3	-8.00514E-12	-16.2606E-12	1.02429E-12
-959.335E-3	-5.56869E-12	-16.5567E-12	1.07510E-12
-956.598E-3	-5.05352E-12	-16.4576E-12	897.605E-15
-953.861E-3	-8.55579E-12	-16.9644E-12	900.943E-15
-951.124E-3	-13.7770E-12	-16.7293E-12	964.487E-15
-948.387E-3	-16.4291E-12	-16.6159E-12	1.26156E-12
-945.650E-3	-14.2807E-12	-16.4999E-12	1.25357E-12
-942.913E-3	-7.78599E-12	-16.4895E-12	1.26392E-12
-940.176E-3	-4.93755E-12	-16.4667E-12	1.03105E-12
-937.439E-3	-4.67625E-12	-16.5169E-12	649.005E-15
-934.702E-3	-8.32558E-12	-16.6472E-12	819.575E-15
-931.965E-3	-11.9665E-12	-16.7596E-12	743.104E-15
-929.228E-3	-16.5003E-12	-16.3548E-12	1.07035E-12
-926.491E-3	-13.2898E-12	-16.5993E-12	990.515E-15
-923.754E-3	-9.15337E-12	-16.3090E-12	1.14372E-12
-921.017E-3	-5.33485E-12	-16.4878E-12	847.945E-15
-918.280E-3	-5.16624E-12	-16.5447E-12	736.710E-15
-915.542E-3	-7.52964E-12	-16.5719E-12	875.665E-15
-912.805E-3	-10.4458E-12	-16.7454E-12	1.01445E-12
-910.068E-3	-13.1163E-12	-16.7627E-12	1.26531E-12
-907.331E-3	-11.3935E-12	-16.5085E-12	1.09329E-12
-904.594E-3	-9.44328E-12	-16.5117E-12	1.04696E-12
-901.857E-3	-5.83935E-12	-16.5326E-12	1.03213E-12
-899.120E-3	-6.20422E-12	-16.5168E-12	910.295E-15
-896.383E-3	-6.54449E-12	-16.7208E-12	731.709E-15
-893.646E-3	-9.67617E-12	-16.5623E-12	739.892E-15
-890.909E-3	-10.4412E-12	-16.4758E-12	926.175E-15
-888.172E-3	-11.2812E-12	-16.5677E-12	1.01859E-12
-885.435E-3	-10.0264E-12	-16.8174E-12	991.939E-15
-882.698E-3	-7.41997E-12	-16.4278E-12	1.02727E-12
-879.961E-3	-6.54812E-12	-16.6672E-12	677.205E-15
-877.224E-3	-5.71079E-12	-16.3184E-12	989.988E-15
-874.487E-3	-7.59468E-12	-16.7415E-12	812.163E-15
-871.750E-3	-8.77762E-12	-16.4440E-12	1.04342E-12
-869.013E-3	-11.3708E-12	-16.5253E-12	1.00310E-12
-866.276E-3	-10.8866E-12	-16.5849E-12	617.008E-15
-863.539E-3	-8.64563E-12	-16.4987E-12	1.06877E-12
-860.802E-3	-6.14262E-12	-16.5681E-12	759.288E-15
-858.064E-3	-5.69248E-12	-16.5139E-12	904.705E-15
-855.327E-3	-5.98297E-12	-16.6440E-12	921.860E-15
-852.590E-3	-8.23154E-12	-16.5504E-12	868.270E-15
-849.853E-3	-11.0388E-12	-16.7018E-12	1.28985E-12
-847.116E-3	-11.3800E-12	-16.4467E-12	1.11005E-12
-844.379E-3	-9.58710E-12	-16.3733E-12	951.211E-15
-841.642E-3	-5.71518E-12	-16.4409E-12	888.595E-15
-838.905E-3	-5.04856E-12	-16.7260E-12	858.014E-15
-836.168E-3	-5.40867E-12	-16.6780E-12	742.215E-15
-833.431E-3	-8.62083E-12	-16.5290E-12	911.148E-15
-830.694E-3	-10.2989E-12	-16.6388E-12	967.002E-15
-827.957E-3	-11.2207E-12	-16.6061E-12	1.09767E-12
-825.220E-3	-8.34808E-12	-16.4770E-12	977.166E-15
-822.483E-3	-5.60284E-12	-16.4033E-12	984.243E-15
-819.746E-3	-4.87480E-12	-16.6377E-12	736.462E-15
-817.009E-3	-5.77164E-12	-16.4455E-12	754.919E-15
-814.272E-3	-8.53977E-12	-16.7068E-12	882.889E-15
-811.535E-3	-8.87947E-12	-16.6259E-12	1.03876E-12
-808.798E-3	-10.0235E-12	-16.6961E-12	879.739E-15
-806.061E-3	-7.35130E-12	-16.3904E-12	1.10791E-12
-803.324E-3	-6.00529E-12	-16.5297E-12	943.760E-15
-800.586E-3	-4.82655E-12	-16.6895E-12	851.905E-15
-797.849E-3	-6.32782E-12	-16.4775E-12	1.00726E-12
-795.112E-3	-8.02822E-12	-16.6533E-12	876.925E-15
-792.375E-3	-9.15909E-12	-16.5938E-12	1.10852E-12
-789.638E-3	-8.50391E-12	-16.4891E-12	1.06934E-12
-786.901E-3	-6.81820E-12	-16.5870E-12	867.456E-15
-784.164E-3	-5.39398E-12	-16.5326E-12	933.561E-15
-781.427E-3	-4.91066E-12	-16.6552E-12	788.853E-15
-778.690E-3	-6.16627E-12	-16.7367E-12	999.108E-15
-775.953E-3	-6.97632E-12	-16.6691E-12	867.493E-15
-773.216E-3	-8.64754E-12	-16.7552E-12	880.253E-15
-770.479E-3	-7.70168E-12	-16.4147E-12	1.06635E-12
-767.742E-3	-7.79629E-12	-16.4630E-12	1.10196E-12
-765.005E-3	-5.23472E-12	-16.6150E-12	1.09003E-12
-762.268E-3	-4.94347E-12	-16.4962E-12	824.983E-15
-759.531E-3	-4.66843E-12	-16.5873E-12	886.714E-15
-756.794E-3	-5.83649E-12	-16.4764E-12	1.00047E-12
-754.057E-3	-7.91111E-12	-16.6720E-12	942.891E-15
-751.320E-3	-7.76024E-12	-16.5851E-12	1.36393E-12
-748.583E-3	-7.91187E-12	-16.5226E-12	936.183E-15
-745.845E-3	-5.69038E-12	-16.3497E-12	1.29090E-12
-743.108E-3	-4.34761E-12	-16.6087E-12	867.546E-15
-740.371E-3	-3.80020E-12	-16.6205E-12	930.042E-15
-737.634E-3	-5.21526E-12	-16.6207E-12	924.349E-15
-734.897E-3	-6.44226E-12	-16.6757E-12	1.30519E-12
-732.160E-3	-7.92351E-12	-16.5766E-12	1.48022E-12
-729.423E-3	-7.41653E-12	-16.5023E-12	1.42089E-12
-726.686E-3	-6.10657E-12	-16.5153E-12	1.44726E-12
-723.949E-3	-3.81851E-12	-16.4936E-12	1.16623E-12
-721.212E-3	-3.17364E-12	-16.6009E-12	993.447E-15
-718.475E-3	-4.34666E-12	-16.4850E-12	1.00323E-12
-715.738E-3	-5.58357E-12	-16.5097E-12	1.40622E-12
-713.001E-3	-8.02612E-12	-16.5157E-12	1.59701E-12
-710.264E-3	-6.50806E-12	-16.4646E-12	1.70050E-12
-707.527E-3	-5.66311E-12	-16.2813E-12	1.36352E-12
-704.790E-3	-3.89843E-12	-16.4913E-12	1.32698E-12
-702.053E-3	-3.13797E-12	-16.6747E-12	1.22846E-12
-699.316E-3	-3.78075E-12	-16.5131E-12	1.11117E-12
-696.579E-3	-5.59959E-12	-16.4706E-12	1.71202E-12
-693.842E-3	-6.42586E-12	-16.6764E-12	1.54301E-12
-691.105E-3	-5.79243E-12	-16.5771E-12	1.95899E-12
-688.367E-3	-4.54502E-12	-16.3509E-12	1.67866E-12
-685.630E-3	-2.72236E-12	-16.3398E-12	1.20245E-12
-682.893E-3	-2.31552E-12	-16.5475E-12	1.13831E-12
-680.156E-3	-2.78091E-12	-16.4089E-12	1.24000E-12
-677.419E-3	-5.04608E-12	-16.6152E-12	1.79022E-12
-674.682E-3	-5.30167E-12	-16.4238E-12	2.01576E-12
-671.945E-3	-4.87862E-12	-16.5149E-12	1.79940E-12
-669.208E-3	-3.22266E-12	-16.4512E-12	1.52607E-12
-666.471E-3	-2.37598E-12	-16.7599E-12	1.15334E-12
-663.734E-3	-1.47419E-12	-16.4449E-12	1.27700E-12
-660.997E-3	-2.12593E-12	-16.7153E-12	1.27832E-12
-658.260E-3	-3.17230E-12	-16.6311E-12	1.74403E-12
-655.523E-3	-3.33023E-12	-16.5470E-12	1.91849E-12
-652.786E-3	-2.89574E-12	-16.6231E-12	1.81078E-12
-650.049E-3	-1.96896E-12	-16.5048E-12	1.72951E-12
-647.312E-3	-1.76773E-12	-16.6747E-12	1.22324E-12
-644.575E-3	-1.08929E-12	-16.6169E-12	1.28964E-12
-641.838E-3	-1.49326E-12	-16.4575E-12	1.32421E-12
-639.101E-3	-1.74046E-12	-16.6169E-12	1.35877E-12
-636.364E-3	-2.26059E-12	-16.5308E-12	1.60887E-12
-633.627E-3	-1.68743E-12	-16.4114E-12	1.38667E-12
-630.889E-3	-1.16253E-12	-16.3985E-12	1.41024E-12
-628.152E-3	-946.999E-15	-16.5825E-12	1.22216E-12
-625.415E-3	-696.754E-15	-16.4664E-12	1.19014E-12
-622.678E-3	-764.847E-15	-16.6084E-12	1.14149E-12
-619.941E-3	-839.233E-15	-16.6728E-12	1.11644E-12
-617.204E-3	-1.12400E-12	-16.4212E-12	1.23554E-12
-614.467E-3	-732.613E-15	-16.4543E-12	1.23539E-12
-611.730E-3	-387.955E-15	-16.7320E-12	922.774E-15
-608.993E-3	-412.750E-15	-16.5506E-12	794.841E-15
-606.256E-3	-483.894E-15	-16.6719E-12	895.465E-15
-603.519E-3	-219.154E-15	-16.5847E-12	1.02767E-12
-600.782E-3	-258.636E-15	-16.7600E-12	872.278E-15
-598.045E-3	-399.971E-15	-16.4818E-12	922.830E-15
-595.308E-3	-292.778E-15	-16.4459E-12	880.720E-15
-592.571E-3	-140.190E-15	-16.5752E-12	1.15920E-12
-589.834E-3	-141.335E-15	-16.5175E-12	904.459E-15
-587.097E-3	-242.805E-15	-16.6292E-12	614.001E-15
-584.360E-3	120.544E-15	-16.5734E-12	1.00172E-12
-581.623E-3	21.7437E-15	-16.6484E-12	873.409E-15
-578.886E-3	-158.310E-15	-16.7161E-12	769.526E-15
-576.149E-3	-64.0869E-15	-16.4971E-12	777.747E-15
-573.411E-3	137.901E-15	-16.6101E-12	799.926E-15
-570.674E-3	4.19612E-15	-16.5624E-12	800.526E-15
-567.937E-3	-225.067E-15	-16.5466E-12	732.643E-15
-565.200E-3	83.3511E-15	-16.6583E-12	845.138E-15
-562.463E-3	138.474E-15	-16.5361E-12	719.656E-15
-559.726E-3	-9.15534E-15	-16.4594E-12	808.990E-15
-556.989E-3	-207.138E-15	-16.5728E-12	664.818E-15
-554.252E-3	177.956E-15	-16.4801E-12	490.072E-15
-551.515E-3	86.9751E-15	-16.6052E-12	762.497E-15
-548.778E-3	-41.7709E-15	-16.5672E-12	713.619E-15
-546.041E-3	75.1495E-15	-16.4598E-12	834.166E-15
-543.304E-3	199.890E-15	-16.6194E-12	716.950E-15
-540.567E-3	86.0214E-15	-16.6543E-12	522.814E-15
-537.830E-3	-109.863E-15	-16.5911E-12	558.690E-15
-535.093E-3	143.433E-15	-16.5391E-12	740.603E-15
-532.356E-3	153.351E-15	-16.5532E-12	606.959E-15
-529.619E-3	-71.7162E-15	-16.7276E-12	804.352E-15
-526.882E-3	-151.443E-15	-16.7890E-12	618.222E-15
-524.145E-3	227.737E-15	-16.5908E-12	735.566E-15
-521.408E-3	35.6674E-15	-16.6336E-12	637.537E-15
-518.671E-3	-108.147E-15	-16.6662E-12	850.105E-15
-515.933E-3	74.9588E-15	-16.5121E-12	649.230E-15
-513.196E-3	160.980E-15	-16.5341E-12	586.778E-15
-510.459E-3	-16.7847E-15	-16.4962E-12	639.254E-15
-507.722E-3	-37.5747E-15	-16.6023E-12	735.442E-15
-504.985E-3	250.626E-15	-16.4500E-12	711.582E-15
-502.248E-3	232.124E-15	-16.4655E-12	591.135E-15
-499.511E-3	-61.7981E-15	-16.6589E-12	697.474E-15
-496.774E-3	-18.6920E-15	-16.5498E-12	709.450E-15
-494.037E-3	259.590E-15	-16.5052E-12	592.034E-15
-491.300E-3	-7.82012E-15	-16.4900E-12	806.259E-15
-488.563E-3	-42.7246E-15	-16.4799E-12	447.022E-15
-485.826E-3	28.2287E-15	-16.6129E-12	641.608E-15
-483.089E-3	171.852E-15	-16.6899E-12	637.658E-15
-480.352E-3	-94.6045E-15	-16.6839E-12	783.575E-15
-477.615E-3	-88.6917E-15	-16.5903E-12	896.266E-15
-474.878E-3	232.506E-15	-16.6835E-12	623.279E-15
-472.141E-3	142.097E-15	-16.4824E-12	822.124E-15
-469.404E-3	-84.3048E-15	-16.6461E-12	636.206E-15
-466.667E-3	-40.6266E-15	-16.5413E-12	669.543E-15
-463.930E-3	226.784E-15	-16.6007E-12	697.097E-15
-461.193E-3	16.0217E-15	-16.6905E-12	586.933E-15
-458.455E-3	20.5993E-15	-16.5956E-12	622.551E-15
-455.718E-3	139.427E-15	-16.4503E-12	650.455E-15
-452.981E-3	170.517E-15	-16.5956E-12	858.954E-15
-450.244E-3	2.67027E-15	-16.4534E-12	571.185E-15
-447.507E-3	-63.7055E-15	-16.6108E-12	705.825E-15
-444.770E-3	210.190E-15	-16.5776E-12	568.379E-15
-442.033E-3	98.4191E-15	-16.5796E-12	758.625E-15
-439.296E-3	-40.4358E-15	-16.5203E-12	628.143E-15
-436.559E-3	92.8878E-15	-16.4919E-12	773.376E-15
-433.822E-3	223.541E-15	-16.4636E-12	693.958E-15
-431.085E-3	-30.8990E-15	-16.6680E-12	632.477E-15
-428.348E-3	-61.7981E-15	-16.5560E-12	830.780E-15
-425.611E-3	161.552E-15	-16.6160E-12	759.930E-15
-422.874E-3	148.392E-15	-16.6950E-12	599.317E-15
-420.137E-3	-67.7108E-15	-16.5161E-12	735.458E-15
-417.400E-3	-13.7329E-15	-16.4460E-12	821.113E-15
-414.663E-3	223.923E-15	-16.4893E-12	667.694E-15
-411.926E-3	78.0105E-15	-16.6185E-12	733.940E-15
-409.189E-3	-56.6482E-15	-16.4464E-12	686.396E-15
-406.452E-3	60.4629E-15	-16.5226E-12	860.931E-15
-403.715E-3	277.901E-15	-16.5255E-12	863.212E-15
-400.977E-3	-122.452E-15	-16.5796E-12	655.337E-15
-398.240E-3	62.5611E-15	-16.5194E-12	576.178E-15
-395.503E-3	185.394E-15	-16.6841E-12	811.270E-15
-392.766E-3	134.659E-15	-16.4474E-12	702.088E-15
-390.029E-3	-37.0026E-15	-16.5584E-12	672.863E-15
-387.292E-3	55.8853E-15	-16.5972E-12	690.453E-15
-384.555E-3	231.934E-15	-16.3722E-12	726.432E-15
-381.818E-3	51.4984E-15	-16.4850E-12	573.586E-15
-379.081E-3	-64.8499E-15	-16.4488E-12	720.313E-15
-376.344E-3	132.751E-15	-16.5518E-12	683.223E-15
-373.607E-3	178.337E-15	-16.4051E-12	695.295E-15
-370.870E-3	-46.7300E-15	-16.6612E-12	651.286E-15
-368.133E-3	-47.4930E-15	-16.5201E-12	628.156E-15
-365.396E-3	157.547E-15	-16.6440E-12	604.141E-15
-362.659E-3	163.269E-15	-16.4836E-12	745.874E-15
-359.922E-3	-59.7000E-15	-16.5762E-12	731.530E-15
-357.185E-3	60.0814E-15	-16.6116E-12	767.860E-15
-354.448E-3	163.651E-15	-16.5461E-12	537.334E-15
-351.711E-3	52.6428E-15	-16.5333E-12	638.236E-15
-348.974E-3	-31.0897E-15	-16.5734E-12	674.644E-15
-346.236E-3	150.681E-15	-16.5600E-12	660.044E-15
-343.499E-3	279.617E-15	-16.5122E-12	784.047E-15
-340.762E-3	-40.6265E-15	-16.5983E-12	650.881E-15
-338.025E-3	-52.0706E-15	-16.5731E-12	859.968E-15
-335.288E-3	158.310E-15	-16.5644E-12	690.169E-15
-332.551E-3	31.4713E-15	-16.7187E-12	793.530E-15
-329.814E-3	-105.286E-15	-16.4714E-12	710.882E-15
-327.077E-3	160.599E-15	-16.6014E-12	715.303E-15
-324.340E-3	184.059E-15	-16.5977E-12	725.618E-15
-321.603E-3	21.3623E-15	-16.3919E-12	785.704E-15
-318.866E-3	-10.8719E-15	-16.4653E-12	708.403E-15
-316.129E-3	172.997E-15	-16.3236E-12	573.656E-15
-313.392E-3	157.738E-15	-16.5820E-12	741.612E-15
-310.655E-3	-118.065E-15	-16.6211E-12	642.202E-15
-307.918E-3	-14.1144E-15	-16.4764E-12	600.255E-15
-305.181E-3	220.871E-15	-16.6819E-12	569.994E-15
-302.444E-3	60.8444E-15	-16.5629E-12	709.924E-15
-299.707E-3	-129.128E-15	-16.5592E-12	827.279E-15
-296.970E-3	187.111E-15	-16.6776E-12	660.351E-15
-294.233E-3	193.596E-15	-16.6133E-12	633.746E-15
-291.496E-3	-62.1796E-15	-16.5189E-12	657.638E-15
-288.758E-3	-31.2806E-15	-16.6286E-12	813.570E-15
-286.021E-3	181.770E-15	-16.5018E-12	581.488E-15
-283.284E-3	92.6970E-15	-16.5620E-12	590.956E-15
-280.547E-3	-132.751E-15	-16.5594E-12	794.256E-15
-277.810E-3	39.8635E-15	-16.4101E-12	882.767E-15
-275.073E-3	211.906E-15	-16.7398E-12	611.898E-15
-272.336E-3	28.9917E-15	-16.7773E-12	784.471E-15
-269.599E-3	-79.5365E-15	-16.4706E-12	612.748E-15
-266.862E-3	196.266E-15	-16.7534E-12	687.520E-15
-264.125E-3	114.250E-15	-16.6289E-12	612.685E-15
-261.388E-3	-49.4004E-15	-16.6278E-12	569.288E-15
-258.651E-3	-11.8256E-15	-16.6009E-12	744.151E-15
-255.914E-3	188.064E-15	-16.4061E-12	583.140E-15
-253.177E-3	82.3975E-15	-16.7144E-12	789.232E-15
-250.440E-3	-88.3102E-15	-16.5013E-12	733.217E-15
-247.703E-3	69.4275E-15	-16.5798E-12	745.706E-15
-244.966E-3	184.441E-15	-16.6864E-12	828.932E-15
-242.229E-3	-23.2696E-15	-16.7571E-12	561.771E-15
-239.492E-3	-47.4930E-15	-16.6881E-12	754.373E-15
-236.755E-3	124.550E-15	-16.7796E-12	689.905E-15
-234.018E-3	261.307E-15	-16.5388E-12	693.383E-15
-231.280E-3	-52.8336E-15	-16.5351E-12	493.939E-15
-228.543E-3	25.9400E-15	-16.6281E-12	675.049E-15
-225.806E-3	286.484E-15	-16.5676E-12	581.080E-15
-223.069E-3	6.67566E-15	-16.5860E-12	550.543E-15
-220.332E-3	20.9808E-15	-16.5749E-12	581.377E-15
-217.595E-3	177.383E-15	-16.5485E-12	797.181E-15
-214.858E-3	175.095E-15	-16.5008E-12	514.980E-15
-212.121E-3	-11.6348E-15	-16.4886E-12	690.933E-15
-209.384E-3	-8.96453E-15	-16.5349E-12	618.456E-15
-206.647E-3	312.042E-15	-16.6071E-12	905.288E-15
-203.910E-3	78.3920E-15	-16.6643E-12	469.060E-15
-201.173E-3	3.43322E-15	-16.5520E-12	717.802E-15
-198.436E-3	12.2071E-15	-16.4956E-12	685.737E-15
-195.699E-3	242.805E-15	-16.4394E-12	830.048E-15
-192.962E-3	86.9751E-15	-16.4579E-12	729.772E-15
-190.225E-3	-120.735E-15	-16.4812E-12	561.126E-15
-187.488E-3	124.168E-15	-16.5765E-12	707.460E-15
-184.751E-3	171.661E-15	-16.6980E-12	571.574E-15
-182.014E-3	-48.4467E-15	-16.6174E-12	619.266E-15
-179.277E-3	-33.9508E-15	-16.7886E-12	516.218E-15
-176.540E-3	146.484E-15	-16.7136E-12	806.921E-15
-173.802E-3	71.9070E-15	-16.6203E-12	629.847E-15
-171.065E-3	-147.820E-15	-16.4815E-12	622.243E-15
-168.328E-3	33.7600E-15	-16.7064E-12	600.664E-15
-165.591E-3	233.078E-15	-16.6073E-12	701.602E-15
-162.854E-3	21.9345E-15	-16.5105E-12	733.608E-15
-160.117E-3	-146.675E-15	-16.8687E-12	654.784E-15
-157.380E-3	214.577E-15	-16.5596E-12	651.358E-15
-154.643E-3	141.335E-15	-16.5352E-12	625.957E-15
-151.906E-3	-122.070E-15	-16.7814E-12	672.220E-15
-149.169E-3	-25.3677E-15	-16.6608E-12	673.672E-15
-146.432E-3	202.560E-15	-16.7805E-12	708.652E-15
-143.695E-3	63.5147E-15	-16.5527E-12	653.805E-15
-140.958E-3	-94.9860E-15	-16.8101E-12	802.073E-15
-138.221E-3	88.1195E-15	-16.4864E-12	804.109E-15
-135.484E-3	152.588E-15	-16.7441E-12	650.867E-15
-132.747E-3	9.15534E-15	-16.6051E-12	697.815E-15
-130.010E-3	-4.57760E-15	-16.5933E-12	807.229E-15
-127.273E-3	152.397E-15	-16.5057E-12	688.311E-15
-124.536E-3	149.345E-15	-16.4733E-12	548.456E-15
-121.799E-3	-37.5748E-15	-16.5634E-12	789.316E-15
-119.062E-3	74.3866E-15	-16.4047E-12	687.775E-15
-116.324E-3	202.179E-15	-16.7571E-12	629.268E-15
-113.587E-3	-2.67030E-15	-16.6726E-12	652.523E-15
-110.850E-3	-41.3895E-15	-16.5041E-12	667.312E-15
-108.113E-3	96.1304E-15	-16.6596E-12	748.392E-15
-105.376E-3	300.407E-15	-16.4499E-12	773.970E-15
-102.639E-3	762.977E-18	-16.5121E-12	700.637E-15
-99.9022E-3	-53.0243E-15	-16.5267E-12	707.765E-15
-97.1651E-3	232.124E-15	-16.5258E-12	613.408E-15
-94.4281E-3	36.6210E-15	-16.5859E-12	757.812E-15
-91.6910E-3	-32.0435E-15	-16.5546E-12	738.908E-15
-88.9540E-3	100.517E-15	-16.5877E-12	723.935E-15
-86.2169E-3	245.476E-15	-16.5236E-12	476.315E-15
-83.4799E-3	-27.8473E-15	-16.5506E-12	627.876E-15
-80.7429E-3	-69.4275E-15	-16.5509E-12	676.141E-15
-78.0058E-3	127.029E-15	-16.5467E-12	745.998E-15
-75.2688E-3	197.220E-15	-16.6580E-12	743.907E-15
-72.5317E-3	-80.8716E-15	-16.5143E-12	882.085E-15
-69.7947E-3	-16.7847E-15	-16.4891E-12	637.477E-15
-67.0576E-3	234.985E-15	-16.6954E-12	728.842E-15
-64.3206E-3	33.1879E-15	-16.4326E-12	736.493E-15
-61.5835E-3	-131.798E-15	-16.6295E-12	673.502E-15
-58.8465E-3	45.3949E-15	-16.5862E-12	822.418E-15
-56.1094E-3	239.563E-15	-16.6047E-12	517.906E-15
-53.3724E-3	-11.4441E-15	-16.6804E-12	764.345E-15
-50.6353E-3	-62.7518E-15	-16.6965E-12	937.815E-15
-47.8983E-3	167.084E-15	-16.7278E-12	658.606E-15
-45.1612E-3	99.3728E-15	-16.3852E-12	806.814E-15
-42.4242E-3	-102.234E-15	-16.4202E-12	801.888E-15
-39.6871E-3	74.5773E-15	-16.5356E-12	702.383E-15
-36.9501E-3	306.320E-15	-16.4581E-12	800.400E-15
-34.2130E-3	12.5885E-15	-16.5246E-12	699.046E-15
-31.4760E-3	-79.5365E-15	-16.5694E-12	549.483E-15
-28.7389E-3	183.487E-15	-16.6663E-12	613.256E-15
-26.0019E-3	245.667E-15	-16.4616E-12	854.491E-15
-23.2648E-3	-97.8470E-15	-16.4554E-12	718.613E-15
-20.5278E-3	14.4958E-15	-16.7613E-12	525.114E-15
-17.7908E-3	237.846E-15	-16.6625E-12	655.131E-15
-15.0537E-3	107.384E-15	-16.5025E-12	490.437E-15
-12.3167E-3	-58.1741E-15	-16.7294E-12	503.540E-15
-9.57961E-3	196.266E-15	-16.6287E-12	589.036E-15
-6.84256E-3	234.985E-15	-16.6026E-12	723.525E-15
-4.10551E-3	31.6620E-15	-16.6284E-12	424.139E-15
-1.36846E-3	-10.6812E-15	-16.6711E-12	312.254E-15
1.36858E-3	92.5064E-15	-16.6801E-12	427.345E-15
4.10563E-3	229.454E-15	-16.5577E-12	647.149E-15
6.84268E-3	-127.029E-15	-16.6277E-12	344.074E-15
9.57973E-3	4.76838E-15	-16.6311E-12	535.102E-15
12.3168E-3	206.375E-15	-16.4994E-12	572.879E-15
15.0538E-3	141.335E-15	-16.5306E-12	567.823E-15
17.7909E-3	-97.0841E-15	-16.4249E-12	682.054E-15
20.5279E-3	63.8962E-15	-16.6028E-12	642.547E-15
23.2650E-3	213.623E-15	-16.6839E-12	519.950E-15
26.0020E-3	1.90733E-15	-16.6133E-12	560.585E-15
28.7391E-3	-79.7272E-15	-16.6726E-12	772.551E-15
31.4761E-3	127.792E-15	-16.6863E-12	784.357E-15
34.2132E-3	173.378E-15	-16.5169E-12	745.297E-15
36.9502E-3	-124.741E-15	-16.5869E-12	638.312E-15
39.6873E-3	67.7109E-15	-16.5499E-12	864.208E-15
42.4243E-3	179.672E-15	-16.4061E-12	698.670E-15
45.1614E-3	75.5311E-15	-16.5084E-12	587.979E-15
47.8984E-3	-105.667E-15	-16.5201E-12	755.098E-15
50.6354E-3	120.163E-15	-16.6899E-12	823.142E-15
53.3725E-3	209.045E-15	-16.5327E-12	876.685E-15
56.1095E-3	-55.3131E-15	-16.5083E-12	576.739E-15
58.8466E-3	-3.81462E-15	-16.6367E-12	581.170E-15
61.5836E-3	160.027E-15	-16.4756E-12	664.272E-15
64.3207E-3	206.757E-15	-16.3771E-12	801.460E-15
67.0577E-3	-100.136E-15	-16.6135E-12	572.790E-15
69.7948E-3	-6.10352E-15	-16.7628E-12	712.838E-15
72.5318E-3	236.321E-15	-16.4504E-12	665.488E-15
75.2689E-3	64.2777E-15	-16.6752E-12	578.776E-15
78.0059E-3	-73.0515E-15	-16.5153E-12	559.954E-15
80.7430E-3	168.991E-15	-16.6259E-12	588.760E-15
83.4800E-3	119.591E-15	-16.6775E-12	629.139E-15
86.2171E-3	-127.983E-15	-16.5001E-12	640.202E-15
88.9541E-3	-51.8799E-15	-16.5184E-12	768.166E-15
91.6912E-3	237.846E-15	-16.6809E-12	739.245E-15
94.4282E-3	117.683E-15	-16.6171E-12	568.267E-15
97.1653E-3	-56.0760E-15	-16.4225E-12	742.483E-15
99.9023E-3	114.059E-15	-16.6552E-12	670.878E-15
102.639E-3	163.841E-15	-16.5454E-12	601.387E-15
105.376E-3	9.72744E-15	-16.6176E-12	725.890E-15
108.113E-3	-30.8990E-15	-16.5999E-12	758.040E-15
110.851E-3	198.936E-15	-16.6510E-12	720.086E-15
113.588E-3	69.6182E-15	-16.6747E-12	780.467E-15
116.325E-3	-41.9616E-15	-16.5558E-12	626.261E-15
119.062E-3	105.858E-15	-16.7476E-12	740.787E-15
121.799E-3	266.647E-15	-16.5944E-12	663.928E-15
124.536E-3	113.106E-15	-16.6386E-12	606.204E-15
127.273E-3	-104.713E-15	-16.5972E-12	631.788E-15
130.010E-3	71.5256E-15	-16.5417E-12	744.432E-15
132.747E-3	94.6045E-15	-16.4897E-12	927.043E-15
135.484E-3	-2.86105E-15	-16.5935E-12	496.021E-15
138.221E-3	-54.9316E-15	-16.7075E-12	746.256E-15
140.958E-3	195.122E-15	-16.5088E-12	625.563E-15
143.695E-3	202.179E-15	-16.5103E-12	554.200E-15
146.432E-3	-26.1307E-15	-16.7125E-12	612.739E-15
149.169E-3	81.0623E-15	-16.6149E-12	831.606E-15
151.906E-3	178.719E-15	-16.4618E-12	801.614E-15
154.643E-3	71.7163E-15	-16.5612E-12	480.579E-15
157.380E-3	-109.291E-15	-16.7767E-12	923.301E-15
160.117E-3	192.642E-15	-16.5750E-12	700.231E-15
162.854E-3	137.329E-15	-16.6585E-12	589.580E-15
165.591E-3	-15.0680E-15	-16.4888E-12	722.268E-15
168.329E-3	14.6866E-15	-16.6705E-12	722.559E-15
171.066E-3	242.615E-15	-16.4744E-12	554.174E-15
173.803E-3	73.6236E-15	-16.7509E-12	615.733E-15
176.540E-3	-66.5665E-15	-16.5699E-12	654.195E-15
179.277E-3	139.809E-15	-16.5416E-12	624.056E-15
182.014E-3	142.670E-15	-16.5045E-12	608.688E-15
184.751E-3	-46.9208E-15	-16.6804E-12	749.205E-15
187.488E-3	-37.9563E-15	-16.5993E-12	722.816E-15
190.225E-3	218.201E-15	-16.6305E-12	716.601E-15
192.962E-3	37.1933E-15	-16.5356E-12	758.090E-15
195.699E-3	-1.14442E-15	-16.6810E-12	554.078E-15
198.436E-3	-572.249E-18	-16.7192E-12	728.050E-15
201.173E-3	289.345E-15	-16.7290E-12	798.422E-15
203.910E-3	85.6400E-15	-16.5872E-12	694.543E-15
206.647E-3	-81.8252E-15	-16.4774E-12	664.540E-15
209.384E-3	146.484E-15	-16.6176E-12	758.643E-15
212.121E-3	193.596E-15	-16.6585E-12	535.614E-15
214.858E-3	-70.3811E-15	-16.6924E-12	728.783E-15
217.595E-3	32.0435E-15	-16.6038E-12	490.172E-15
220.332E-3	161.934E-15	-16.4036E-12	743.236E-15
223.069E-3	84.1141E-15	-16.6053E-12	534.133E-15
225.807E-3	-44.4413E-15	-16.4767E-12	758.288E-15
228.544E-3	17.1662E-15	-16.7125E-12	689.561E-15
231.281E-3	211.716E-15	-16.4628E-12	629.667E-15
234.018E-3	15.8310E-15	-16.4650E-12	793.351E-15
236.755E-3	-29.9454E-15	-16.8011E-12	650.137E-15
239.492E-3	150.299E-15	-16.4524E-12	657.410E-15
242.229E-3	215.721E-15	-16.7800E-12	653.089E-15
244.966E-3	-121.498E-15	-16.6560E-12	764.156E-15
247.703E-3	-2.47953E-15	-16.5368E-12	506.823E-15
250.440E-3	251.198E-15	-16.7628E-12	749.910E-15
253.177E-3	16.0217E-15	-16.5980E-12	790.391E-15
255.914E-3	-111.008E-15	-16.5337E-12	725.914E-15
258.651E-3	107.193E-15	-16.5654E-12	600.295E-15
261.388E-3	259.209E-15	-16.6044E-12	773.194E-15
264.125E-3	18.6920E-15	-16.6219E-12	514.348E-15
266.862E-3	17.3569E-15	-16.5803E-12	705.206E-15
269.599E-3	269.508E-15	-16.5574E-12	696.816E-15
272.336E-3	238.419E-15	-16.5962E-12	896.381E-15
275.073E-3	-33.5693E-15	-16.5099E-12	816.245E-15
277.810E-3	76.1032E-15	-16.5264E-12	813.219E-15
280.547E-3	336.456E-15	-16.5784E-12	537.694E-15
283.285E-3	21.5530E-15	-16.5180E-12	669.632E-15
286.022E-3	-89.8361E-15	-16.4329E-12	817.722E-15
288.759E-3	51.6891E-15	-16.5984E-12	666.793E-15
291.496E-3	288.963E-15	-16.4915E-12	744.279E-15
294.233E-3	-46.9208E-15	-16.6155E-12	599.573E-15
296.970E-3	35.2860E-15	-16.3684E-12	680.254E-15
299.707E-3	190.353E-15	-16.5631E-12	834.021E-15
302.444E-3	158.501E-15	-16.5519E-12	605.915E-15
305.181E-3	-28.9917E-15	-16.6449E-12	513.031E-15
307.918E-3	57.9834E-15	-16.4955E-12	610.684E-15
310.655E-3	264.549E-15	-16.5434E-12	598.363E-15
313.392E-3	20.9809E-15	-16.5495E-12	750.542E-15
316.129E-3	-84.4955E-15	-16.4628E-12	675.332E-15
318.866E-3	140.190E-15	-16.5283E-12	885.490E-15
321.603E-3	179.672E-15	-16.7284E-12	602.924E-15
324.340E-3	-66.3757E-15	-16.4805E-12	514.073E-15
327.077E-3	31.6619E-15	-16.6756E-12	536.203E-15
329.814E-3	208.282E-15	-16.5353E-12	562.051E-15
332.551E-3	86.2121E-15	-16.6860E-12	744.034E-15
335.288E-3	-105.667E-15	-16.5447E-12	829.609E-15
338.025E-3	85.4492E-15	-16.5921E-12	844.075E-15
340.763E-3	252.342E-15	-16.5015E-12	683.392E-15
343.500E-3	-38.5284E-15	-16.7479E-12	667.571E-15
346.237E-3	-43.6783E-15	-16.4936E-12	878.004E-15
348.974E-3	255.775E-15	-16.6256E-12	699.839E-15
351.711E-3	248.909E-15	-16.5324E-12	784.468E-15
354.448E-3	-163.078E-15	-16.7018E-12	552.434E-15
357.185E-3	60.0815E-15	-16.4492E-12	788.627E-15
359.922E-3	254.440E-15	-16.6815E-12	715.673E-15
362.659E-3	149.727E-15	-16.3806E-12	675.124E-15
365.396E-3	-94.4138E-15	-16.6707E-12	683.717E-15
368.133E-3	155.830E-15	-16.4870E-12	555.244E-15
370.870E-3	231.743E-15	-16.6927E-12	710.815E-15
373.607E-3	-41.9617E-15	-16.4916E-12	598.100E-15
376.344E-3	-14.4959E-15	-16.6135E-12	922.388E-15
379.081E-3	181.198E-15	-16.7313E-12	623.986E-15
381.818E-3	164.604E-15	-16.4691E-12	636.649E-15
384.555E-3	-41.0080E-15	-16.6145E-12	672.545E-15
387.292E-3	41.7710E-15	-16.4831E-12	705.318E-15
390.029E-3	278.282E-15	-16.4225E-12	570.483E-15
392.766E-3	4.57761E-15	-16.6441E-12	592.831E-15
395.503E-3	-89.0732E-15	-16.6192E-12	679.669E-15
398.241E-3	175.285E-15	-16.5649E-12	749.751E-15
400.978E-3	202.942E-15	-16.4590E-12	708.945E-15
403.715E-3	-115.967E-15	-16.4724E-12	638.179E-15
406.452E-3	30.7083E-15	-16.6984E-12	576.151E-15
409.189E-3	281.525E-15	-16.6019E-12	663.405E-15
411.926E-3	102.615E-15	-16.8886E-12	679.090E-15
414.663E-3	-167.847E-15	-16.7435E-12	637.831E-15
417.400E-3	112.915E-15	-16.6246E-12	771.643E-15
420.137E-3	207.329E-15	-16.6169E-12	830.259E-15
422.874E-3	57.7926E-15	-16.5457E-12	781.855E-15
425.611E-3	-66.3757E-15	-16.6735E-12	705.162E-15
428.348E-3	194.550E-15	-16.5151E-12	592.348E-15
431.085E-3	144.196E-15	-16.5732E-12	643.070E-15
433.822E-3	-28.4195E-15	-16.5661E-12	695.849E-15
436.559E-3	92.6971E-15	-16.4948E-12	624.293E-15
439.296E-3	135.040E-15	-16.5941E-12	783.645E-15
442.033E-3	65.8035E-15	-16.6214E-12	714.288E-15
444.770E-3	-74.9588E-15	-16.6468E-12	663.632E-15
447.507E-3	112.915E-15	-16.5800E-12	546.141E-15
450.244E-3	122.261E-15	-16.5733E-12	696.585E-15
452.982E-3	15.0680E-15	-16.5467E-12	606.604E-15
455.719E-3	17.7384E-15	-16.6284E-12	703.219E-15
458.456E-3	250.053E-15	-16.6281E-12	675.371E-15
461.193E-3	57.7926E-15	-16.5190E-12	554.092E-15
463.930E-3	-93.2694E-15	-16.5700E-12	603.458E-15
466.667E-3	10.4904E-15	-16.5505E-12	668.747E-15
469.404E-3	269.508E-15	-16.4755E-12	543.151E-15
472.141E-3	156.975E-15	-16.5663E-12	729.916E-15
474.878E-3	-96.1303E-15	-16.5045E-12	656.247E-15
477.615E-3	220.489E-15	-16.5366E-12	581.692E-15
480.352E-3	208.282E-15	-16.6569E-12	782.257E-15
483.089E-3	5.72205E-15	-16.7351E-12	576.510E-15
485.826E-3	-8.96454E-15	-16.7092E-12	839.760E-15
488.563E-3	230.598E-15	-16.3936E-12	778.311E-15
491.300E-3	29.3731E-15	-16.5399E-12	743.428E-15
494.037E-3	-78.3920E-15	-16.5125E-12	566.647E-15
496.774E-3	107.956E-15	-16.8475E-12	616.648E-15
499.511E-3	307.274E-15	-16.6938E-12	713.949E-15
502.248E-3	130.272E-15	-16.4343E-12	581.550E-15
504.985E-3	-138.664E-15	-16.5690E-12	674.785E-15
507.722E-3	280.571E-15	-16.5155E-12	805.060E-15
510.459E-3	213.051E-15	-16.4756E-12	682.454E-15
513.197E-3	18.8828E-15	-16.5487E-12	663.685E-15
515.934E-3	13.5421E-15	-16.5838E-12	660.010E-15
518.671E-3	281.334E-15	-16.6158E-12	687.747E-15
521.408E-3	56.0761E-15	-16.5797E-12	753.387E-15
524.145E-3	-48.2560E-15	-16.4934E-12	671.028E-15
526.882E-3	117.302E-15	-16.5761E-12	519.001E-15
529.619E-3	303.268E-15	-16.5275E-12	705.686E-15
532.356E-3	63.5147E-15	-16.6645E-12	584.410E-15
535.093E-3	64.2777E-15	-16.4307E-12	828.348E-15
537.830E-3	395.203E-15	-16.6171E-12	650.110E-15
540.567E-3	295.830E-15	-16.4359E-12	642.686E-15
543.304E-3	46.1578E-15	-16.5471E-12	662.738E-15
546.041E-3	43.1060E-15	-16.5324E-12	783.343E-15
548.778E-3	275.993E-15	-16.6572E-12	714.069E-15
551.515E-3	134.468E-15	-16.5807E-12	892.889E-15
554.252E-3	173.950E-15	-16.5518E-12	665.961E-15
556.989E-3	440.598E-15	-16.5599E-12	744.387E-15
559.726E-3	407.791E-15	-16.5102E-12	789.918E-15
562.463E-3	125.122E-15	-16.4811E-12	613.896E-15
565.200E-3	56.8390E-15	-16.4778E-12	830.989E-15
567.937E-3	267.029E-15	-16.5674E-12	830.033E-15
570.675E-3	385.284E-15	-16.6092E-12	706.700E-15
573.412E-3	342.178E-15	-16.6586E-12	776.417E-15
576.149E-3	480.461E-15	-16.5910E-12	755.166E-15
578.886E-3	568.962E-15	-16.6833E-12	699.409E-15
581.623E-3	310.516E-15	-16.7076E-12	769.002E-15
584.360E-3	67.5201E-15	-16.7064E-12	915.039E-15
587.097E-3	389.481E-15	-16.5583E-12	762.769E-15
589.834E-3	565.720E-15	-16.4663E-12	624.730E-15
592.571E-3	585.747E-15	-16.7007E-12	865.978E-15
595.308E-3	716.591E-15	-16.5345E-12	1.14251E-12
598.045E-3	797.463E-15	-16.6058E-12	926.354E-15
600.782E-3	424.957E-15	-16.5476E-12	875.712E-15
603.519E-3	167.847E-15	-16.5654E-12	725.090E-15
606.256E-3	351.143E-15	-16.6300E-12	809.213E-15
608.993E-3	747.871E-15	-16.5702E-12	681.397E-15
611.730E-3	1.02711E-12	-16.4359E-12	897.096E-15
614.467E-3	996.017E-15	-16.5804E-12	812.779E-15
617.204E-3	967.789E-15	-16.6421E-12	955.085E-15
619.941E-3	838.661E-15	-16.5953E-12	593.736E-15
622.678E-3	394.440E-15	-16.5140E-12	554.869E-15
625.416E-3	365.257E-15	-16.6255E-12	576.236E-15
628.153E-3	1.19286E-12	-16.5432E-12	713.583E-15
630.890E-3	1.25122E-12	-16.4775E-12	801.416E-15
633.627E-3	1.31226E-12	-16.6876E-12	872.595E-15
636.364E-3	1.18713E-12	-16.3265E-12	847.972E-15
639.101E-3	874.519E-15	-16.4701E-12	924.922E-15
641.838E-3	459.862E-15	-16.5947E-12	923.990E-15
644.575E-3	427.246E-15	-16.4954E-12	542.474E-15
647.312E-3	1.14174E-12	-16.6096E-12	942.964E-15
650.049E-3	1.63956E-12	-16.3677E-12	1.19003E-12
652.786E-3	1.65501E-12	-16.5908E-12	1.25331E-12
655.523E-3	1.46694E-12	-16.4349E-12	948.868E-15
658.260E-3	1.16978E-12	-16.4646E-12	919.187E-15
660.997E-3	693.131E-15	-16.6135E-12	770.958E-15
663.734E-3	620.651E-15	-16.5339E-12	768.135E-15
666.471E-3	1.32790E-12	-16.6027E-12	893.535E-15
669.208E-3	1.93996E-12	-16.6204E-12	998.839E-15
671.945E-3	2.47231E-12	-16.5470E-12	1.06085E-12
674.682E-3	1.63841E-12	-16.4734E-12	857.261E-15
677.419E-3	1.47800E-12	-16.6690E-12	891.933E-15
680.156E-3	901.794E-15	-16.6114E-12	860.228E-15
682.894E-3	761.986E-15	-16.3317E-12	926.306E-15
685.631E-3	1.32618E-12	-16.6428E-12	907.325E-15
688.368E-3	2.19707E-12	-16.5054E-12	970.486E-15
691.105E-3	2.46029E-12	-16.6056E-12	1.16041E-12
693.842E-3	2.11964E-12	-16.5573E-12	999.699E-15
696.579E-3	1.80073E-12	-16.6005E-12	812.053E-15
699.316E-3	1.28460E-12	-16.5758E-12	1.01568E-12
702.053E-3	1.09081E-12	-16.5929E-12	963.716E-15
704.790E-3	1.33991E-12	-16.6751E-12	966.486E-15
707.527E-3	2.29149E-12	-16.5413E-12	906.441E-15
710.264E-3	2.73094E-12	-16.6058E-12	1.03284E-12
713.001E-3	2.82478E-12	-16.4740E-12	1.07312E-12
715.738E-3	2.28748E-12	-16.6383E-12	922.150E-15
718.475E-3	1.77269E-12	-16.5908E-12	914.492E-15
721.212E-3	1.56937E-12	-16.5513E-12	866.807E-15
723.949E-3	1.33553E-12	-16.6331E-12	864.758E-15
726.686E-3	2.25639E-12	-16.5529E-12	841.996E-15
729.423E-3	2.78625E-12	-16.6543E-12	1.11119E-12
732.160E-3	3.67241E-12	-16.5559E-12	1.06212E-12
734.897E-3	3.21655E-12	-16.6640E-12	1.03130E-12
737.634E-3	3.00846E-12	-16.4907E-12	871.472E-15
740.372E-3	1.79100E-12	-16.5483E-12	1.01939E-12
743.109E-3	1.94969E-12	-16.6161E-12	948.991E-15
745.846E-3	2.17285E-12	-16.3892E-12	850.504E-15
748.583E-3	2.90203E-12	-16.5612E-12	899.151E-15
751.320E-3	3.44582E-12	-16.6964E-12	996.131E-15
754.057E-3	3.45173E-12	-16.5782E-12	1.00814E-12
756.794E-3	2.87018E-12	-16.4911E-12	823.753E-15
759.531E-3	1.78413E-12	-16.6313E-12	853.984E-15
762.268E-3	1.21899E-12	-16.3494E-12	721.658E-15
765.005E-3	1.79043E-12	-16.5592E-12	954.807E-15
767.742E-3	2.83890E-12	-16.5138E-12	848.393E-15
770.479E-3	3.35007E-12	-16.7720E-12	888.871E-15
773.216E-3	3.26958E-12	-16.5483E-12	1.01608E-12
775.953E-3	2.24819E-12	-16.6712E-12	741.025E-15
778.690E-3	1.65215E-12	-16.5652E-12	790.461E-15
781.427E-3	1.19991E-12	-16.4653E-12	846.157E-15
784.164E-3	1.80511E-12	-16.6170E-12	757.937E-15
786.901E-3	3.19443E-12	-16.3905E-12	905.538E-15
789.638E-3	4.01230E-12	-16.5481E-12	1.00554E-12
792.375E-3	3.87230E-12	-16.5651E-12	967.897E-15
795.112E-3	2.53220E-12	-16.6095E-12	763.504E-15
797.850E-3	1.84746E-12	-16.4841E-12	823.680E-15
800.587E-3	1.35021E-12	-16.6730E-12	818.854E-15
803.324E-3	1.89877E-12	-16.6063E-12	971.830E-15
806.061E-3	3.36056E-12	-16.4278E-12	934.012E-15
808.798E-3	4.69036E-12	-16.3519E-12	1.13788E-12
811.535E-3	4.89731E-12	-16.6949E-12	1.23892E-12
814.272E-3	3.63369E-12	-16.7960E-12	956.969E-15
817.009E-3	2.40669E-12	-16.6293E-12	829.509E-15
819.746E-3	1.71356E-12	-16.5170E-12	719.619E-15
822.483E-3	1.85585E-12	-16.4516E-12	700.046E-15
825.220E-3	3.39317E-12	-16.6444E-12	1.02061E-12
827.957E-3	5.46570E-12	-16.5508E-12	1.19722E-12
830.694E-3	5.00755E-12	-16.4820E-12	1.05424E-12
833.431E-3	3.97091E-12	-16.4929E-12	1.13348E-12
836.168E-3	2.46677E-12	-16.4746E-12	830.956E-15
838.905E-3	1.67942E-12	-16.6665E-12	1.09865E-12
841.642E-3	1.58596E-12	-16.5957E-12	873.990E-15
844.379E-3	3.01876E-12	-16.6266E-12	992.234E-15
847.116E-3	5.15156E-12	-16.3858E-12	1.17737E-12
849.853E-3	5.65834E-12	-16.6383E-12	1.17097E-12
852.591E-3	4.82597E-12	-16.6941E-12	961.686E-15
855.328E-3	2.81181E-12	-16.6396E-12	864.154E-15
858.065E-3	2.11697E-12	-16.4762E-12	869.789E-15
860.802E-3	1.85661E-12	-16.6096E-12	804.244E-15
863.539E-3	3.46107E-12	-16.4964E-12	1.16694E-12
866.276E-3	6.12011E-12	-16.5876E-12	1.22162E-12
869.013E-3	6.45180E-12	-16.6746E-12	955.894E-15
871.750E-3	5.35984E-12	-16.5562E-12	1.17899E-12
874.487E-3	3.32756E-12	-16.5712E-12	957.970E-15
877.224E-3	2.30541E-12	-16.5011E-12	581.393E-15
879.961E-3	1.99642E-12	-16.5987E-12	745.145E-15
882.698E-3	3.31249E-12	-16.3981E-12	1.01715E-12
885.435E-3	5.75123E-12	-16.4698E-12	1.16313E-12
888.172E-3	8.99830E-12	-16.3829E-12	1.36100E-12
890.909E-3	6.73409E-12	-16.6955E-12	1.22728E-12
893.646E-3	4.06075E-12	-16.6915E-12	981.940E-15
896.383E-3	2.56596E-12	-16.6831E-12	901.418E-15
899.120E-3	2.42748E-12	-16.5905E-12	1.02244E-12
901.857E-3	3.17879E-12	-16.6535E-12	944.027E-15
904.594E-3	5.65090E-12	-16.6103E-12	1.27316E-12
907.331E-3	7.30095E-12	-16.5342E-12	1.40107E-12
910.069E-3	6.19850E-12	-16.5128E-12	1.06234E-12
912.806E-3	5.16529E-12	-16.7994E-12	1.07453E-12
915.543E-3	3.18985E-12	-16.8545E-12	849.258E-15
918.280E-3	3.11203E-12	-16.3959E-12	931.335E-15
921.017E-3	3.73726E-12	-16.4888E-12	939.870E-15
923.754E-3	7.14664E-12	-16.3049E-12	1.28540E-12
926.491E-3	8.80451E-12	-16.4614E-12	1.16827E-12
929.228E-3	8.14285E-12	-16.6277E-12	1.23840E-12
931.965E-3	5.59597E-12	-16.7078E-12	813.188E-15
934.702E-3	3.75195E-12	-16.6020E-12	755.277E-15
937.439E-3	2.94571E-12	-16.4839E-12	783.299E-15
940.176E-3	3.22380E-12	-16.4583E-12	617.397E-15
942.913E-3	5.35488E-12	-16.4489E-12	1.12038E-12
945.650E-3	7.54852E-12	-16.4260E-12	1.13192E-12
948.387E-3	7.78027E-12	-16.6736E-12	1.06507E-12
951.124E-3	5.16357E-12	-16.6613E-12	1.06467E-12
953.861E-3	4.36249E-12	-16.6837E-12	810.045E-15
956.598E-3	3.43857E-12	-16.5277E-12	776.946E-15
959.335E-3	4.52385E-12	-16.5231E-12	970.367E-15
962.072E-3	5.64499E-12	-16.2502E-12	1.07244E-12
964.809E-3	8.77399E-12	-16.4456E-12	1.19910E-12
967.547E-3	9.05819E-12	-16.6378E-12	1.27874E-12
970.284E-3	6.70853E-12	-16.5158E-12	1.17534E-12
973.021E-3	5.78995E-12	-16.4909E-12	759.407E-15
975.758E-3	4.57878E-12	-16.5366E-12	1.06950E-12
978.495E-3	4.60110E-12	-16.4125E-12	855.226E-15
981.232E-3	5.12791E-12	-16.6395E-12	937.340E-15
983.969E-3	8.29182E-12	-16.3566E-12	1.04982E-12
986.706E-3	8.57124E-12	-16.4856E-12	1.19224E-12
989.443E-3	8.53577E-12	-16.5256E-12	1.11439E-12
992.180E-3	5.96409E-12	-16.4750E-12	1.00426E-12
994.917E-3	4.64134E-12	-16.6774E-12	953.190E-15
997.654E-3	3.82175E-12	-16.5199E-12	824.985E-15
1.00039E+0	4.34570E-12	-16.3498E-12	834.582E-15
1.00313E+0	8.96549E-12	-16.1909E-12	1.23426E-12
1.00587E+0	12.3234E-12	-16.6935E-12	1.55620E-12
1.00860E+0	13.3102E-12	-16.4564E-12	1.43045E-12
1.01134E+0	9.83810E-12	-16.6143E-12	1.21888E-12
1.01408E+0	6.94828E-12	-16.6464E-12	1.03477E-12
1.01681E+0	4.96597E-12	-16.5143E-12	927.275E-15
1.01955E+0	5.83744E-12	-16.5095E-12	902.312E-15
1.02229E+0	7.70760E-12	-16.3583E-12	1.17213E-12
1.02502E+0	13.9549E-12	-16.5074E-12	1.62435E-12
1.02776E+0	14.2847E-12	-16.6069E-12	1.49317E-12
1.03050E+0	11.8988E-12	-16.8634E-12	1.43368E-12
1.03324E+0	7.12681E-12	-16.8269E-12	875.096E-15
1.03597E+0	4.97417E-12	-16.6069E-12	1.19153E-12
1.03871E+0	5.56984E-12	-16.6696E-12	1.01463E-12
1.04145E+0	7.66926E-12	-16.3261E-12	1.13041E-12
1.04418E+0	13.8592E-12	-16.4604E-12	1.49918E-12
1.04692E+0	15.3709E-12	-16.7225E-12	1.57399E-12
1.04966E+0	14.8581E-12	-16.6406E-12	1.67165E-12
1.05239E+0	8.77647E-12	-16.6080E-12	1.19488E-12
1.05513E+0	5.71728E-12	-16.5049E-12	1.00435E-12
1.05787E+0	4.93908E-12	-16.5265E-12	893.500E-15
1.06061E+0	7.04727E-12	-16.4950E-12	1.21492E-12
1.06334E+0	12.8128E-12	-16.2085E-12	1.55588E-12
1.06608E+0	18.9510E-12	-16.3070E-12	1.84252E-12
1.06882E+0	17.2081E-12	-16.6119E-12	1.45150E-12
1.07155E+0	10.4374E-12	-16.8613E-12	1.05408E-12
1.07429E+0	6.05087E-12	-16.7850E-12	727.833E-15
1.07703E+0	5.38921E-12	-16.4634E-12	1.03031E-12
1.07977E+0	8.99162E-12	-16.3383E-12	1.12237E-12
1.08250E+0	13.6904E-12	-16.3258E-12	1.45045E-12
1.08524E+0	25.5722E-12	-16.4613E-12	1.90350E-12
1.08798E+0	19.9125E-12	-16.7739E-12	1.21322E-12
1.09071E+0	13.1792E-12	-16.7156E-12	1.24483E-12
1.09345E+0	6.32629E-12	-16.6889E-12	1.03427E-12
1.09619E+0	5.21545E-12	-16.6373E-12	963.086E-15
1.09892E+0	7.79934E-12	-16.3815E-12	1.04706E-12
1.10166E+0	13.1649E-12	-16.5224E-12	1.39145E-12
1.10440E+0	22.1889E-12	-16.4552E-12	1.95316E-12
1.10714E+0	18.4589E-12	-17.0279E-12	1.20872E-12
1.10987E+0	13.1382E-12	-16.5721E-12	1.20042E-12
1.11261E+0	8.61340E-12	-16.5516E-12	1.16807E-12
1.11535E+0	6.73294E-12	-16.5791E-12	1.07856E-12
1.11808E+0	7.38602E-12	-16.5173E-12	1.24675E-12
1.12082E+0	12.5111E-12	-16.4126E-12	1.27071E-12
1.12356E+0	18.1086E-12	-16.5261E-12	1.72222E-12
1.12630E+0	19.5288E-12	-16.7444E-12	1.55139E-12
1.12903E+0	13.8687E-12	-16.7562E-12	1.23489E-12
1.13177E+0	9.52320E-12	-16.5686E-12	1.01364E-12
1.13451E+0	7.21893E-12	-16.8284E-12	891.478E-15
1.13724E+0	8.18996E-12	-16.5542E-12	1.11938E-12
1.13998E+0	12.8727E-12	-16.2874E-12	1.48037E-12
1.14272E+0	16.2609E-12	-16.4121E-12	1.36139E-12
1.14545E+0	20.8994E-12	-16.4725E-12	1.89918E-12
1.14819E+0	13.5555E-12	-16.7409E-12	933.306E-15
1.15093E+0	11.5622E-12	-16.5539E-12	1.14800E-12
1.15367E+0	9.44996E-12	-16.7256E-12	1.10431E-12
1.15640E+0	9.99661E-12	-16.5393E-12	984.196E-15
1.15914E+0	12.9181E-12	-16.4254E-12	1.32263E-12
1.16188E+0	16.6590E-12	-16.4845E-12	1.14680E-12
1.16461E+0	19.7800E-12	-16.2877E-12	1.66917E-12
1.16735E+0	15.1747E-12	-16.7738E-12	944.320E-15
1.17009E+0	11.3995E-12	-16.7077E-12	1.07691E-12
1.17283E+0	9.24473E-12	-16.4378E-12	1.05441E-12
1.17556E+0	11.5612E-12	-16.6086E-12	1.05264E-12
1.17830E+0	13.4077E-12	-16.3414E-12	1.48944E-12
1.18104E+0	21.2786E-12	-16.2939E-12	1.78110E-12
1.18377E+0	21.6455E-12	-16.1992E-12	1.58063E-12
1.18651E+0	20.7117E-12	-16.5598E-12	1.53900E-12
1.18925E+0	12.6934E-12	-16.7323E-12	1.12867E-12
1.19198E+0	10.5934E-12	-16.7276E-12	1.04348E-12
1.19472E+0	10.3281E-12	-16.6519E-12	1.15714E-12
1.19746E+0	14.0127E-12	-16.3980E-12	1.31390E-12
1.20020E+0	18.8976E-12	-16.4363E-12	1.40772E-12
1.20293E+0	19.8435E-12	-16.7062E-12	1.44089E-12
1.20567E+0	21.8521E-12	-16.2466E-12	2.06006E-12
1.20841E+0	13.0724E-12	-16.8913E-12	1.02832E-12
1.21114E+0	12.9133E-12	-16.5193E-12	1.18973E-12
1.21388E+0	10.4008E-12	-16.7209E-12	1.01562E-12
1.21662E+0	12.9665E-12	-16.5677E-12	1.32720E-12
1.21935E+0	17.4353E-12	-16.2491E-12	1.69425E-12
1.22209E+0	23.2828E-12	-16.3301E-12	1.47260E-12
1.22483E+0	25.1013E-12	-16.3494E-12	1.77943E-12
1.22757E+0	17.5823E-12	-16.9138E-12	959.877E-15
1.23030E+0	12.8704E-12	-16.4792E-12	1.37117E-12
1.23304E+0	9.33762E-12	-16.5639E-12	930.305E-15
1.23578E+0	10.5463E-12	-16.5848E-12	1.04060E-12
1.23851E+0	15.1651E-12	-15.9557E-12	1.09688E-12
1.24125E+0	26.5869E-12	-16.4655E-12	1.81350E-12
1.24399E+0	30.2649E-12	-16.3301E-12	1.86531E-12
1.24673E+0	25.4831E-12	-16.9262E-12	1.08247E-12
1.24946E+0	13.1300E-12	-16.5840E-12	929.097E-15
1.25220E+0	9.05189E-12	-16.5152E-12	816.970E-15
1.25494E+0	8.00705E-12	-16.6170E-12	773.853E-15
1.25767E+0	13.6486E-12	-16.4920E-12	1.22470E-12
1.26041E+0	29.0262E-12	-16.1941E-12	1.77009E-12
1.26315E+0	35.1767E-12	-16.4471E-12	1.91816E-12
1.26588E+0	32.3893E-12	-16.6850E-12	1.65210E-12
1.26862E+0	17.5390E-12	-16.9498E-12	747.770E-15
1.27136E+0	11.3726E-12	-16.5903E-12	970.467E-15
1.27410E+0	7.84683E-12	-16.5755E-12	942.864E-15
1.27683E+0	15.1657E-12	-16.2020E-12	1.49218E-12
1.27957E+0	26.0893E-12	-16.0416E-12	1.70785E-12
1.28231E+0	40.2958E-12	-16.5658E-12	2.24549E-12
1.28504E+0	36.1519E-12	-16.6693E-12	1.99192E-12
1.28778E+0	21.3240E-12	-17.2091E-12	824.830E-15
1.29052E+0	10.6235E-12	-16.6812E-12	1.19487E-12
1.29326E+0	9.40342E-12	-16.5663E-12	1.00563E-12
1.29599E+0	13.2420E-12	-16.3869E-12	1.22616E-12
1.29873E+0	21.9828E-12	-16.2849E-12	1.63042E-12
1.30147E+0	34.6411E-12	-16.4322E-12	2.31689E-12
1.30420E+0	31.2586E-12	-16.6905E-12	1.70743E-12
1.30694E+0	22.5082E-12	-16.8167E-12	1.35785E-12
1.30968E+0	11.6419E-12	-16.7532E-12	1.09991E-12
1.31241E+0	11.2511E-12	-16.5651E-12	1.08092E-12
1.31515E+0	12.3308E-12	-16.4458E-12	1.19858E-12
1.31789E+0	20.3398E-12	-16.5927E-12	1.77996E-12
1.32063E+0	29.0104E-12	-16.3938E-12	2.00115E-12
1.32336E+0	33.2716E-12	-16.5758E-12	1.67710E-12
1.32610E+0	26.3586E-12	-16.4345E-12	1.56477E-12
1.32884E+0	15.8850E-12	-16.7534E-12	1.14394E-12
1.33157E+0	13.7833E-12	-16.5818E-12	1.22787E-12
1.33431E+0	11.9833E-12	-16.4666E-12	1.28645E-12
1.33705E+0	18.9802E-12	-16.3732E-12	1.85720E-12
1.33979E+0	24.5049E-12	-16.3661E-12	1.66963E-12
1.34252E+0	35.8744E-12	-16.2224E-12	2.14494E-12
1.34526E+0	31.2666E-12	-16.8964E-12	1.75172E-12
1.34800E+0	23.4196E-12	-17.0887E-12	1.38808E-12
1.35073E+0	14.8878E-12	-16.5431E-12	1.30416E-12
1.35347E+0	11.5719E-12	-17.0536E-12	846.475E-15
1.35621E+0	14.9504E-12	-16.2452E-12	1.57427E-12
1.35894E+0	21.3089E-12	-16.3932E-12	1.42197E-12
1.36168E+0	35.2097E-12	-16.1661E-12	1.99531E-12
1.36442E+0	41.2235E-12	-16.2505E-12	1.59241E-12
1.36716E+0	32.5617E-12	-16.8271E-12	1.64589E-12
1.36989E+0	18.6239E-12	-16.5315E-12	1.34637E-12
1.37263E+0	12.8757E-12	-16.7689E-12	1.05768E-12
1.37537E+0	12.9997E-12	-16.4542E-12	1.35004E-12
1.37810E+0	21.8273E-12	-16.3408E-12	1.51993E-12
1.38084E+0	31.5395E-12	-16.3021E-12	1.63425E-12
1.38358E+0	45.0504E-12	-16.5655E-12	2.77019E-12
1.38631E+0	33.7326E-12	-16.7789E-12	1.28708E-12
1.38905E+0	21.1451E-12	-16.7691E-12	1.01722E-12
1.39179E+0	16.2172E-12	-16.6513E-12	1.04614E-12
1.39453E+0	13.3623E-12	-16.6704E-12	1.03396E-12
1.39726E+0	21.3917E-12	-16.1464E-12	1.89124E-12
1.40000E+0	27.6871E-12	-16.3713E-12	1.58366E-12
